Photodetector\ position(in mm)	Intensity (in V)

0	0.059
0.1	0.0658
0.2	0.0746
0.3	0.085
0.4	0.114
0.5	0.192
0.6	0.341
0.7	0.65
0.8	1.5
0.9	2.79
1	4.61
1.1	6.43
1.2	7.3
1.3	7.95
1.4	7.053
1.5	6.15
1.6	4.2
1.7	3
1.8	1.7
1.9	0.94
2	0.55
2.1	0.305
2.2	0.215
2.3	0.175
